#Energy(keV)    dEe/dx(keV/micro_m)  dEn/dx(keV/micro_m)  x(micro_m) LastWrongU
0.00999999     2.529E+00  2.702E+01       0.0003          3          2    
0.0109999     2.653E+00  2.881E+01       0.0004          3          2    
0.0119999     2.771E+00  3.055E+01       0.0004          3          3    
0.0129999     2.884E+00  3.223E+01       0.0004          3          3    
0.0139999     2.993E+00  3.387E+01       0.0004          3          3    
0.0149999     3.098E+00  3.547E+01       0.0004          4          3    
0.0159999     3.200E+00  3.702E+01       0.0004          4          3    
0.0169999     3.298E+00  3.854E+01       0.0004          4          3    
0.0179999     3.394E+00  4.003E+01       0.0004          4          3    
0.0199999     3.577E+00  4.292E+01       0.0004          4          3    
0.0224999     3.794E+00  4.638E+01       0.0004          4          3    
0.0249999     3.999E+00  4.969E+01       0.0005          4          3    
0.0274999     4.195E+00  5.288E+01       0.0005          4          3    
0.0299999     4.381E+00  5.596E+01       0.0005          5          4    
0.0324999     4.560E+00  5.894E+01       0.0005          5          4    
0.0349999     4.732E+00  6.183E+01       0.0005          5          4    
0.0374999     4.898E+00  6.464E+01       0.0005          5          4    
0.0399999     5.059E+00  6.737E+01       0.0005          5          4    
0.0449999     5.366E+00  7.264E+01       0.0006          5          4    
0.0499999     5.656E+00  7.768E+01       0.0006          5          4    
0.0549999     5.932E+00  8.252E+01       0.0006          6          4    
0.0599999     6.196E+00  8.717E+01       0.0006          6          4    
0.0649999     6.449E+00  9.167E+01       0.0006          6          5    
0.0699999     6.692E+00  9.603E+01       0.0007          6          5    
0.0799999     7.154E+00  1.044E+02       0.0007          6          5    
0.0899999     7.588E+00  1.123E+02       0.0007          7          5    
0.0999999     7.999E+00  1.198E+02       0.0008          7          5    
0.110     8.390E+00  1.270E+02       0.0008          7          6    
0.120     8.763E+00  1.339E+02       0.0008          7          6    
0.130     9.121E+00  1.406E+02       0.0008          8          6    
0.139999     9.465E+00  1.470E+02       0.0009          8          6    
0.149999     9.797E+00  1.532E+02       0.0009          8          6    
0.159999     1.012E+01  1.593E+02       0.0009          8          6    
0.169999     1.043E+01  1.651E+02       0.0009          8          7    
0.179999     1.073E+01  1.709E+02       0.0009          9          7    
0.199999     1.131E+01  1.819E+02      0.0010          9          7    
0.224999     1.200E+01  1.949E+02      0.0010          9          7    
0.249999     1.265E+01  2.073E+02      0.0011         10          7    
0.274999     1.327E+01  2.191E+02      0.0011         10          8    
0.299999     1.386E+01  2.303E+02      0.0012         10          8    
0.324999     1.442E+01  2.411E+02      0.0012         11          8    
0.349999     1.497E+01  2.515E+02      0.0012         11          8    
0.374999     1.549E+01  2.616E+02      0.0013         11          9    
0.399999     1.600E+01  2.713E+02      0.0013         12          9    
0.449999     1.697E+01  2.898E+02      0.0014         12          9    
0.499999     1.789E+01  3.073E+02      0.0014         13         10    
0.549999     1.876E+01  3.238E+02      0.0015         13         10    
0.599999     1.959E+01  3.396E+02      0.0015         14         10    
0.649999     2.039E+01  3.547E+02      0.0016         14         11    
0.699999     2.116E+01  3.692E+02      0.0016         14         11    
0.799999     2.263E+01  3.965E+02      0.0017         15         12    
0.899999     2.400E+01  4.220E+02      0.0018         16         12    
0.999999     2.530E+01  4.459E+02      0.0019         17         13    
1.10    2.653E+01  4.684E+02      0.0020         17         13    
1.20    2.771E+01  4.898E+02      0.0021         18         14    
1.30    2.884E+01  5.101E+02      0.0022         19         14    
1.40    2.993E+01  5.295E+02      0.0023         19         15    
1.50    3.098E+01  5.481E+02      0.0023         20         15    
1.60    3.200E+01  5.659E+02      0.0024         20         15    
1.70    3.298E+01  5.831E+02      0.0025         21         16    
1.80    3.394E+01  5.996E+02      0.0025         21         16    
2.00    3.577E+01  6.310E+02      0.0027         22         17    
2.25    3.794E+01  6.675E+02      0.0028         23         18    
2.50    4.000E+01  7.014E+02      0.0030         25         19    
2.75    4.195E+01  7.332E+02      0.0031         26         19    
3.00    4.381E+01  7.630E+02      0.0033         27         20    
3.25    4.560E+01  7.911E+02      0.0034         28         21    
3.50    4.732E+01  8.178E+02      0.0035         29         21    
3.75    4.899E+01  8.431E+02      0.0037         30         22    
4.00    5.059E+01  8.673E+02      0.0038         30         23    
4.50    5.366E+01  9.125E+02      0.0040         32         24    
5.00    5.656E+01  9.541E+02      0.0043         34         25    
5.50    5.932E+01  9.927E+02      0.0045         35         26    
6.00    6.196E+01  1.029E+03      0.0047         37         27    
6.50    6.449E+01  1.062E+03      0.0049         38         28    
7.00    6.693E+01  1.094E+03      0.0051         40         29    
8.00    7.155E+01  1.152E+03      0.0055         43         31    
9.00    7.589E+01  1.205E+03      0.0059         45         33 
10.00    7.999E+01  1.253E+03      0.0063         48         35    
11.00    8.390E+01  1.297E+03      0.0067         50         37    
12.00    8.763E+01  1.337E+03      0.0070         53         38    
13.00    9.121E+01  1.375E+03      0.0074         55         40    
14.00    9.465E+01  1.410E+03      0.0077         57         41    
15.00    9.797E+01  1.442E+03      0.0080         60         43    
16.00    1.012E+02  1.473E+03      0.0084         62         44    
17.00    1.043E+02  1.502E+03      0.0087         64         46    
18.00    1.073E+02  1.529E+03      0.0090         66         47    
20.00    1.131E+02  1.580E+03      0.0096         70         50    
22.50    1.200E+02  1.636E+03     0.0104         75         53    
25.00    1.265E+02  1.687E+03     0.0111         79         57    
27.50    1.327E+02  1.732E+03     0.0118         84         60    
30.00    1.386E+02  1.773E+03     0.0125         88         63    
32.50    1.442E+02  1.810E+03     0.0132         92         66    
35.00    1.497E+02  1.844E+03     0.0139         96         69    
37.50    1.549E+02  1.876E+03     0.0146        100         72    
40.00    1.600E+02  1.905E+03     0.0152        104         75    
45.00    1.697E+02  1.957E+03     0.0166        112         81    
50.00    1.789E+02  2.002E+03     0.0178        119         86    
55.00    1.876E+02  2.042E+03     0.0191        127         91    
60.00    1.959E+02  2.077E+03     0.0204        134         97    
65.00    2.039E+02  2.108E+03     0.0216        141        102    
70.00    2.116E+02  2.136E+03     0.0228        148        107    
80.00    2.263E+02  2.183E+03     0.0252        162        117    
90.00    2.400E+02  2.222E+03     0.0276        175        126    
100.00    2.530E+02  2.253E+03     0.0300        188        135    
110.00    2.653E+02  2.280E+03     0.0323        201        144    
120.00    2.771E+02  2.302E+03     0.0346        214        153    
130.00    2.884E+02  2.320E+03     0.0369        226        162    
140.00    2.993E+02  2.335E+03     0.0392        239        171    
150.00    3.098E+02  2.347E+03     0.0415        251        180    
160.00    3.200E+02  2.358E+03     0.0438        263        188    
170.00    3.298E+02  2.366E+03     0.0461        275        197    
180.00    3.394E+02  2.373E+03     0.0484        287        205    
200.00    3.577E+02  2.382E+03     0.0529        311        221    
225.00    3.726E+02  2.387E+03     0.0586        340        242    
250.00    3.834E+02  2.387E+03     0.0643        370        262    
275.00    3.984E+02  2.384E+03     0.0701        399        281    
300.00    4.159E+02  2.377E+03     0.0758        428        301    
325.00    4.347E+02  2.369E+03     0.0816        456        321    
350.00    4.541E+02  2.358E+03     0.0874        485        340    
375.00    4.737E+02  2.346E+03     0.0932        513        360    
400.00    4.931E+02  2.333E+03     0.0991        541        379    
450.00    5.307E+02  2.305E+03    0.1108        597        418    
500.00    5.661E+02  2.276E+03    0.1226        652        456    
550.00    5.989E+02  2.245E+03    0.1345        706        494    
600.00    6.291E+02  2.213E+03    0.1465        761        532    
650.00    6.570E+02  2.182E+03    0.1586        815        570    
700.00    6.828E+02  2.151E+03    0.1708        869        608    
800.00    7.287E+02  2.091E+03    0.1955        975        683    
900.00    7.685E+02  2.032E+03    0.2207       1081        758    
1000.00    8.037E+02  1.977E+03    0.2463       1187        834    
1000.10    8.353E+02  1.925E+03    0.2723       1292        909    
1000.20    8.641E+02  1.875E+03    0.2988       1397        985    
1000.30    8.909E+02  1.828E+03    0.3256       1502       1061    
1000.40    9.162E+02  1.784E+03    0.528       1606       1137    
1000.50    9.403E+02  1.742E+03    0.3804       1709       1215    
1000.60    9.637E+02  1.702E+03    0.4083       1812       1292    
1000.70    9.865E+02  1.664E+03    0.4365       1914       1370    
1000.80    1.009E+03  1.628E+03    0.4650       2016       1448    
2000.00    1.054E+03  1.562E+03    0.5229       2217       1607    
2000.25    1.110E+03  1.487E+03    0.5964       2465       1806    
2000.50    1.168E+03  1.420E+03    0.6710       2707       2007    
2000.75    1.228E+03  1.360E+03    0.7463       2942       2209    
3000.00    1.291E+03  1.305E+03    0.8220       3172       2410    
3000.25    1.357E+03  1.256E+03    0.8979       3394       2611    
3000.50    1.425E+03  1.211E+03    0.9737       3608       2810    
3000.75    1.495E+03  1.169E+03    1.05      3815       3006    
4000.00    1.568E+03  1.131E+03    1.12      4014       3200    
4000.50    1.720E+03  1.062E+03    1.27      4389       3578    
5000.00    1.879E+03  1.003E+03    1.42      4733       3940    
5000.50    2.045E+03  9.508E+02    1.56      5048       4284    
6000.00    2.215E+03  9.046E+02    1.69      5336       4610    
6000.50    2.388E+03  8.634E+02    1.83      5599       4917    
7000.00    2.565E+03  8.263E+02    1.95      5839       5206    
8000.00    2.923E+03  7.622E+02    2.20      6262       5734    
9000.00    3.284E+03  7.086E+02    2.42      6619       6201    
10000.00    3.644E+03  6.629E+02    2.64      6921       6613    