#Energy(keV)    dEe/dx(keV/micro_m)  dEn/dx(keV/micro_m)  x(micro_m) LastWrongU
0.00999999     3.852E+00  3.135E+01       0.0004          3          2    
0.0109999     4.040E+00  3.349E+01       0.0004          3          2    
0.0119999     4.219E+00  3.557E+01       0.0004          3          2    
0.0129999     4.392E+00  3.759E+01       0.0005          3          2    
0.0139999     4.558E+00  3.955E+01       0.0005          3          2    
0.0149999     4.718E+00  4.147E+01       0.0005          3          2    
0.0159999     4.872E+00  4.335E+01       0.0005          3          2    
0.0169999     5.022E+00  4.519E+01       0.0005          3          3    
0.0179999     5.168E+00  4.699E+01       0.0005          3          3    
0.0199999     5.447E+00  5.049E+01       0.0005          3          3    
0.0224999     5.778E+00  5.469E+01       0.0005          4          3    
0.0249999     6.090E+00  5.873E+01       0.0006          4          3    
0.0274999     6.388E+00  6.263E+01       0.0006          4          3    
0.0299999     6.672E+00  6.640E+01       0.0006          4          3    
0.0324999     6.944E+00  7.006E+01       0.0006          4          3    
0.0349999     7.206E+00  7.362E+01       0.0006          4          3    
0.0374999     7.459E+00  7.709E+01       0.0006          4          3    
0.0399999     7.704E+00  8.047E+01       0.0007          4          3    
0.0449999     8.171E+00  8.700E+01       0.0007          5          4    
0.0499999     8.613E+00  9.327E+01       0.0007          5          4    
0.0549999     9.033E+00  9.930E+01       0.0007          5          4    
0.0599999     9.435E+00  1.051E+02       0.0008          5          4    
0.0649999     9.820E+00  1.108E+02       0.0008          5          4    
0.0699999     1.019E+01  1.163E+02       0.0008          5          4    
0.0799999     1.089E+01  1.268E+02       0.0008          6          4    
0.0899999     1.156E+01  1.368E+02       0.0009          6          5    
0.0999999     1.218E+01  1.464E+02       0.0009          6          5  
0.110     1.278E+01  1.556E+02       0.0009          6          5    
0.120     1.334E+01  1.644E+02      0.0010          7          5    
0.130     1.389E+01  1.730E+02      0.0010          7          5    
0.139999     1.441E+01  1.813E+02      0.0010          7          5    
0.149999     1.492E+01  1.893E+02      0.0010          7          5    
0.159999     1.541E+01  1.972E+02      0.0011          7          6    
0.169999     1.588E+01  2.048E+02      0.0011          7          6    
0.179999     1.634E+01  2.123E+02      0.0011          8          6    
0.199999     1.723E+01  2.266E+02      0.0011          8          6    
0.224999     1.827E+01  2.438E+02      0.0012          8          6    
0.249999     1.926E+01  2.601E+02      0.0012          8          6    
0.274999     2.020E+01  2.757E+02      0.0013          9          7    
0.299999     2.110E+01  2.907E+02      0.0013          9          7    
0.324999     2.196E+01  3.051E+02      0.0014          9          7    
0.349999     2.279E+01  3.191E+02      0.0014         10          7    
0.374999     2.359E+01  3.326E+02      0.0014         10          7    
0.399999     2.436E+01  3.457E+02      0.0015         10          8    
0.449999     2.584E+01  3.708E+02      0.0015         11          8    
0.499999     2.724E+01  3.947E+02      0.0016         11          8    
0.549999     2.857E+01  4.174E+02      0.0017         11          9    
0.599999     2.984E+01  4.392E+02      0.0017         12          9    
0.649999     3.106E+01  4.601E+02      0.0018         12          9    
0.699999     3.223E+01  4.802E+02      0.0018         12          9    
0.799999     3.445E+01  5.185E+02      0.0019         13         10    
0.899999     3.654E+01  5.544E+02      0.0020         14         10    
0.999999     3.852E+01  5.884E+02      0.0021         14         11    
1.10    4.040E+01  6.207E+02      0.0022         15         11    
1.20    4.220E+01  6.515E+02      0.0023         15         11    
1.30    4.392E+01  6.809E+02      0.0023         16         12    
1.40    4.558E+01  7.092E+02      0.0024         16         12    
1.50    4.718E+01  7.364E+02      0.0025         17         12    
1.60    4.873E+01  7.626E+02      0.0025         17         13    
1.70    5.023E+01  7.880E+02      0.0026         17         13    
1.80    5.168E+01  8.126E+02      0.0027         18         13    
2.00    5.448E+01  8.595E+02      0.0028         19         14    
2.25    5.778E+01  9.146E+02      0.0029         20         14    
2.50    6.091E+01  9.663E+02      0.0031         20         15    
2.75    6.388E+01  1.015E+03      0.0032         21         15    
3.00    6.672E+01  1.061E+03      0.0033         22         16    
3.25    6.945E+01  1.105E+03      0.0034         23         16    
3.50    7.207E+01  1.147E+03      0.0036         23         17    
3.75    7.460E+01  1.187E+03      0.0037         24         17    
4.00    7.704E+01  1.226E+03      0.0038         25         18    
4.50    8.172E+01  1.299E+03      0.0040         26         19    
5.00    8.614E+01  1.366E+03      0.0042         27         19    
5.50    9.034E+01  1.430E+03      0.0044         28         20    
6.00    9.436E+01  1.490E+03      0.0046         29         21    
6.50    9.821E+01  1.546E+03      0.0048         30         22    
7.00    1.019E+02  1.600E+03      0.0049         31         22    
8.00    1.090E+02  1.700E+03      0.0053         33         24    
9.00    1.156E+02  1.792E+03      0.0056         35         25 
10.00    1.218E+02  1.876E+03      0.0059         36         26    
11.00    1.278E+02  1.955E+03      0.0062         38         27    
12.00    1.334E+02  2.028E+03      0.0065         40         28    
13.00    1.389E+02  2.098E+03      0.0067         41         29    
14.00    1.441E+02  2.163E+03      0.0070         42         30    
15.00    1.492E+02  2.224E+03      0.0073         44         31    
16.00    1.541E+02  2.283E+03      0.0075         45         32    
17.00    1.588E+02  2.338E+03      0.0078         46         33    
18.00    1.634E+02  2.391E+03      0.0080         48         34    
20.00    1.723E+02  2.490E+03      0.0085         50         36    
22.50    1.827E+02  2.603E+03      0.0091         53         38    
25.00    1.926E+02  2.706E+03      0.0096         56         40    
27.50    2.020E+02  2.800E+03     0.0101         58         42    
30.00    2.110E+02  2.887E+03     0.0107         61         44    
32.50    2.196E+02  2.968E+03     0.0112         63         46    
35.00    2.279E+02  3.043E+03     0.0117         66         48    
37.50    2.359E+02  3.113E+03     0.0122         68         49    
40.00    2.436E+02  3.179E+03     0.0126         70         51    
45.00    2.584E+02  3.300E+03     0.0136         75         54    
50.00    2.724E+02  3.409E+03     0.0145         79         57    
55.00    2.857E+02  3.507E+03     0.0153         83         60    
60.00    2.984E+02  3.596E+03     0.0162         87         63    
65.00    3.106E+02  3.677E+03     0.0170         91         66    
70.00    3.223E+02  3.752E+03     0.0179         94         69    
80.00    3.445E+02  3.886E+03     0.0195        102         74    
90.00    3.654E+02  4.002E+03     0.0210        109         80    
100.00    3.852E+02  4.104E+03     0.0226        115         85    
110.00    4.040E+02  4.194E+03     0.0241        122         89    
120.00    4.220E+02  4.274E+03     0.0256        128         94    
130.00    4.392E+02  4.346E+03     0.0270        135         99    
140.00    4.558E+02  4.410E+03     0.0284        141        103    
150.00    4.718E+02  4.469E+03     0.0299        147        108    
160.00    4.873E+02  4.522E+03     0.0313        153        112    
170.00    5.023E+02  4.571E+03     0.0326        159        117    
180.00    5.168E+02  4.616E+03     0.0340        164        121    
200.00    5.448E+02  4.694E+03     0.0367        176        129    
225.00    5.778E+02  4.776E+03     0.0401        190        139    
250.00    6.091E+02  4.842E+03     0.0434        203        149    
275.00    6.388E+02  4.898E+03     0.0467        216        159    
300.00    6.672E+02  4.943E+03     0.0499        230        169    
325.00    6.945E+02  4.981E+03     0.0531        242        178    
350.00    7.207E+02  5.012E+03     0.0563        255        187    
375.00    7.460E+02  5.038E+03     0.0595        268        196    
400.00    7.786E+02  5.059E+03     0.0627        280        205    
450.00    8.785E+02  5.089E+03     0.0689        304        223    
500.00    9.566E+02  5.107E+03     0.0751        328        240    
550.00    1.020E+03  5.115E+03     0.0812        351        257    
600.00    1.072E+03  5.116E+03     0.0873        374        273    
650.00    1.116E+03  5.112E+03     0.0934        396        289    
700.00    1.154E+03  5.102E+03     0.0995        419        305    
800.00    1.220E+03  5.073E+03    0.1117        463        337    
900.00    1.277E+03  5.034E+03    0.1239        507        368    
1000.00    1.328E+03  4.989E+03    0.1362        550        398    
1000.10    1.377E+03  4.939E+03    0.1486        593        428    
1000.20    1.424E+03  4.887E+03    0.1610        636        458    
1000.30    1.469E+03  4.833E+03    0.1736        679        487    
1000.40    1.513E+03  4.778E+03    0.1862        721        516    
1000.50    1.557E+03  4.723E+03    0.1988        763        546    
1000.60    1.600E+03  4.668E+03    0.2116        805        575    
1000.70    1.643E+03  4.614E+03    0.2244        847        604    
1000.80    1.684E+03  4.560E+03    0.2373        888        633    
2000.00    1.765E+03  4.454E+03    0.2633        970        691    
2000.25    1.862E+03  4.328E+03    0.2962       1072        764    
2000.50    1.953E+03  4.208E+03    0.3294       1172        837    
2000.75    2.039E+03  4.094E+03    0.3629       1271        909    
3000.00    2.119E+03  3.987E+03    0.3968       1368        982    
3000.25    2.194E+03  3.886E+03    0.4310       1464       1055    
3000.50    2.264E+03  3.790E+03    0.4655       1559       1128    
3000.75    2.329E+03  3.699E+03    0.5003       1653       1201    
4000.00    2.389E+03  3.613E+03    0.5353       1746       1273    
4000.50    2.496E+03  3.455E+03    0.6063       1930       1419    
5000.00    2.588E+03  3.311E+03    0.6784       2111       1565    
5000.50    2.667E+03  3.182E+03    0.7514       2289       1712    
6000.00    2.736E+03  3.063E+03    0.8254       2464       1858    
6000.50    2.795E+03  2.955E+03    0.9005       2637       2004    
7000.00    2.848E+03  2.855E+03    0.9764       2808       2151    
8000.00    2.938E+03  2.677E+03    1.13      3146       2445    
9000.00    3.016E+03  2.524E+03    1.29      3477       2741    
10000.00    3.090E+03  2.390E+03    1.45      3801       3036    