#Energy(keV)    dEe/dx(keV/micro_m)  dEn/dx(keV/micro_m)  x(micro_m) LastWrongU
0.0099999     2.776E+00  3.385E+01       0.0003          2          1    
0.0109999     2.912E+00  3.554E+01       0.0003          2          2    
0.0119999     3.041E+00  3.714E+01       0.0003          2          2    
0.0129999     3.166E+00  3.866E+01       0.0003          2          2    
0.0139999     3.285E+00  4.011E+01       0.0003          2          2    
0.0149999     3.400E+00  4.150E+01       0.0003          3          2    
0.0159999     3.512E+00  4.283E+01       0.0004          3          2    
0.0169999     3.620E+00  4.410E+01       0.0004          3          2    
0.0179999     3.725E+00  4.533E+01       0.0004          3          2    
0.0199999     3.927E+00  4.767E+01       0.0004          3          2    
0.0224999     4.165E+00  5.038E+01       0.0004          3          2    
0.0249999     4.390E+00  5.290E+01       0.0004          3          2    
0.0274999     4.604E+00  5.525E+01       0.0005          3          2    
0.0299999     4.809E+00  5.745E+01       0.0005          3          2    
0.0324999     5.005E+00  5.953E+01       0.0005          4          3    
0.0349999     5.194E+00  6.150E+01       0.0005          4          3    
0.0374999     5.377E+00  6.337E+01       0.0005          4          3    
0.0399999     5.553E+00  6.515E+01       0.0006          4          3    
0.0449999     5.890E+00  6.847E+01       0.0006          4          3    
0.0499999     6.208E+00  7.153E+01       0.0006          4          3    
0.0549999     6.511E+00  7.436E+01       0.0007          5          3    
0.0599999     6.801E+00  7.699E+01       0.0007          5          3    
0.0649999     7.079E+00  7.946E+01       0.0007          5          4    
0.0699999     7.346E+00  8.177E+01       0.0008          5          4    
0.0799999     7.853E+00  8.602E+01       0.0008          6          4    
0.0899999     8.329E+00  8.984E+01       0.0009          6          4    
0.0999999     8.780E+00  9.331E+01       0.0009          6          4    
0.110     9.209E+00  9.648E+01      0.0010          7          5    
0.120     9.618E+00  9.941E+01      0.0010          7          5    
0.130     1.001E+01  1.021E+02      0.0011          7          5    
0.139999     1.039E+01  1.046E+02      0.0011          7          5    
0.149999     1.075E+01  1.070E+02      0.0012          8          6    
0.159999     1.111E+01  1.092E+02      0.0012          8          6    
0.169999     1.145E+01  1.113E+02      0.0013          8          6    
0.179999     1.178E+01  1.132E+02      0.0013          9          6    
0.199999     1.242E+01  1.169E+02      0.0014          9          7    
0.224999     1.317E+01  1.209E+02      0.0015         10          7    
0.249999     1.388E+01  1.245E+02      0.0016         10          7    
0.274999     1.456E+01  1.277E+02      0.0017         11          8    
0.299999     1.521E+01  1.306E+02      0.0018         11          8    
0.324999     1.583E+01  1.332E+02      0.0019         12          9    
0.349999     1.643E+01  1.356E+02      0.0020         12          9    
0.374999     1.700E+01  1.378E+02      0.0021         13          9    
0.399999     1.756E+01  1.398E+02      0.0022         13         10    
0.449999     1.863E+01  1.434E+02      0.0024         14         10    
0.499999     1.963E+01  1.466E+02      0.0026         15         11    
0.549999     2.059E+01  1.493E+02      0.0028         16         12    
0.599999     2.151E+01  1.517E+02      0.0030         17         13    
0.649999     2.238E+01  1.538E+02      0.0032         18         13    
0.699999     2.323E+01  1.557E+02      0.0033         19         14    
0.799999     2.483E+01  1.589E+02      0.0037         21         15    
0.899999     2.634E+01  1.614E+02      0.0040         22         16    
0.999999     2.777E+01  1.635E+02      0.0044         24         18    
1.10    2.912E+01  1.652E+02      0.0047         26         19    
1.20    3.042E+01  1.666E+02      0.0051         27         20    
1.30    3.166E+01  1.677E+02      0.0054         29         21    
1.40    3.285E+01  1.686E+02      0.0057         31         22    
1.50    3.401E+01  1.693E+02      0.0060         32         23    
1.60    3.512E+01  1.699E+02      0.0064         34         24    
1.70    3.620E+01  1.703E+02      0.0067         35         25    
1.80    3.725E+01  1.707E+02      0.0070         37         26    
2.00    3.927E+01  1.711E+02      0.0077         40         28    
2.25    4.165E+01  1.711E+02      0.0085         43         31    
2.50    4.390E+01  1.709E+02      0.0093         47         33    
2.75    4.604E+01  1.703E+02     0.0101         50         36    
3.00    4.809E+01  1.696E+02     0.0109         54         38    
3.25    5.005E+01  1.688E+02     0.0117         57         41    
3.50    5.194E+01  1.678E+02     0.0125         61         43    
3.75    5.377E+01  1.668E+02     0.0133         64         46    
4.00    5.553E+01  1.657E+02     0.0141         67         48    
4.50    5.890E+01  1.634E+02     0.0158         74         53    
5.00    6.209E+01  1.610E+02     0.0174         81         57    
5.50    6.512E+01  1.586E+02     0.0190         87         62    
6.00    6.801E+01  1.562E+02     0.0207         94         66    
6.50    7.079E+01  1.538E+02     0.0223        100         71    
7.00    7.346E+01  1.514E+02     0.0240        106         75    
8.00    7.853E+01  1.468E+02     0.0274        118         84    
9.00    8.330E+01  1.425E+02     0.0307        130         93    
10.00    8.780E+01  1.384E+02     0.0342        142        102    
11.00    9.209E+01  1.346E+02     0.0376        154        111    
12.00    9.618E+01  1.309E+02     0.0410        165        119    
13.00    1.001E+02  1.275E+02     0.0445        176        128    
14.00    1.039E+02  1.243E+02     0.0479        187        137    
15.00    1.075E+02  1.213E+02     0.0514        198        145    
16.00    1.111E+02  1.184E+02     0.0549        208        154    
17.00    1.145E+02  1.157E+02     0.0584        218        162    
18.00    1.178E+02  1.131E+02     0.0619        228        171    
20.00    1.242E+02  1.084E+02     0.0689        248        187    
22.50    1.317E+02  1.030E+02     0.0777        271        208    
25.00    1.384E+02  9.829E+01     0.0865        294        228    
27.50    1.445E+02  9.404E+01     0.0953        315        247    
30.00    1.507E+02  9.020E+01    0.1041        336        267    
32.50    1.568E+02  8.671E+01    0.1128        356        286    
35.00    1.628E+02  8.353E+01    0.1215        375        304    
37.50    1.687E+02  8.062E+01    0.1301        393        322    
40.00    1.744E+02  7.793E+01    0.1387        410        340    
45.00    1.851E+02  7.314E+01    0.1557        444        375    
50.00    1.949E+02  6.900E+01    0.1724        474        407    
55.00    2.038E+02  6.536E+01    0.1889        503        439    
60.00    2.120E+02  6.215E+01    0.2052        530        469    
65.00    2.196E+02  5.929E+01    0.2214        555        498    
70.00    2.267E+02  5.671E+01    0.2373        579        526    
80.00    2.404E+02  5.227E+01    0.2687        624        579    
90.00    2.539E+02  4.856E+01    0.2993        664        629    
100.00    2.673E+02  4.540E+01    0.3291        701        675    
110.00    2.805E+02  4.269E+01    0.3581        734        718    
120.00    2.933E+02  4.032E+01    0.3864        764        759    
130.00    3.058E+02  3.823E+01    0.4139        792        797    
140.00    3.180E+02  3.637E+01    0.4407        817        833    
150.00    3.299E+02  3.471E+01    0.4668        840        867    
160.00    3.416E+02  3.321E+01    0.4923        862        899    
170.00    3.531E+02  3.185E+01    0.5172        882        929    
180.00    3.644E+02  3.061E+01    0.5415        901        958    
200.00    3.866E+02  2.844E+01    0.5885        935       1011    
225.00    4.138E+02  2.616E+01    0.6444        974       1070    
250.00    4.403E+02  2.425E+01    0.6975       1006       1123    
275.00    4.663E+02  2.263E+01    0.7481       1035       1171    
300.00    4.917E+02  2.124E+01    0.7963       1060       1214    
325.00    5.165E+02  2.003E+01    0.8425       1082       1253    
350.00    5.407E+02  1.896E+01    0.8868       1102       1289    
375.00    5.644E+02  1.801E+01    0.9294       1119       1322    
400.00    5.874E+02  1.716E+01    0.9705       1135       1352    
450.00    6.318E+02  1.570E+01    1.05      1165       1406    
500.00    6.740E+02  1.449E+01    1.12      1191       1452    
550.00    7.140E+02  1.347E+01    1.19      1213       1494    
600.00    7.520E+02  1.259E+01    1.26      1231       1530    
650.00    7.881E+02  1.184E+01    1.32      1248       1563    
700.00    8.224E+02  1.117E+01    1.38      1263       1592    
800.00    8.859E+02  1.006E+01    1.49      1293       1644    
900.00    9.432E+02  9.169E+00    1.60      1318       1688    
1000.00    9.952E+02  8.433E+00    1.70      1339       1726    
1000.10    1.042E+03  7.815E+00    1.80      1358       1759    
1000.20    1.085E+03  7.289E+00    1.89      1375       1789    
1000.30    1.123E+03  6.834E+00    1.98      1389       1815    
1000.40    1.158E+03  6.437E+00    2.07      1403       1840    
1000.50    1.190E+03  6.087E+00    2.15      1415       1862    
1000.60    1.218E+03  5.776E+00    2.24      1427       1883    
1000.70    1.244E+03  5.497E+00    2.32      1437       1902    
1000.80    1.267E+03  5.246E+00    2.39      1447       1920    
2000.00    1.306E+03  4.812E+00    2.55      1474       1953    
2000.25    1.345E+03  4.367E+00    2.74      1509       1990    
2000.50    1.373E+03  4.003E+00    2.92      1540       2023    
2000.75    1.393E+03  3.699E+00    3.10      1570       2053    
3000.00    1.407E+03  3.440E+00    3.28      1598       2081    
3000.25    1.415E+03  3.218E+00    3.45      1625       2107    
3000.50    1.420E+03  3.024E+00    3.63      1651       2132    
3000.75    1.421E+03  2.854E+00    3.80      1676       2155    
4000.00    1.420E+03  2.704E+00    3.98      1700       2178    
4000.50    1.413E+03  2.448E+00    4.33      1783       2220    
5000.00    1.400E+03  2.239E+00    4.69      1863       2261    
5000.50    1.385E+03  2.066E+00    5.04      1941       2300    
6000.00    1.368E+03  1.918E+00    5.41      2017       2337    
6000.50    1.349E+03  1.792E+00    5.77      2092       2374    
7000.00    1.330E+03  1.682E+00    6.15      2166       2410    
8000.00    1.292E+03  1.500E+00    6.91      2435       2481    
9000.00    1.254E+03  1.356E+00    7.69      2690       2551    
10000.00    1.218E+03  1.238E+00    8.50      2937       2621    