#Energy(keV)    dEe/dx(keV/micro_m)  dEn/dx(keV/micro_m)  x(micro_m) LastWrongU
0.00999999     4.081E+00  2.202E+01       0.0003          3          2    
0.0109999     4.280E+00  2.298E+01       0.0003          3          2    
0.0119999     4.470E+00  2.388E+01       0.0003          3          2    
0.0129999     4.653E+00  2.473E+01       0.0004          3          2    
0.0139999     4.828E+00  2.553E+01       0.0004          3          2    
0.0149999     4.998E+00  2.629E+01       0.0004          3          2    
0.0159999     5.162E+00  2.701E+01       0.0004          3          2    
0.0169999     5.320E+00  2.770E+01       0.0004          3          3    
0.0179999     5.475E+00  2.836E+01       0.0004          3          3    
0.0199999     5.771E+00  2.960E+01       0.0004          4          3    
0.0224999     6.121E+00  3.102E+01       0.0005          4          3    
0.0249999     6.452E+00  3.232E+01       0.0005          4          3    
0.0274999     6.767E+00  3.351E+01       0.0005          4          3    
0.0299999     7.068E+00  3.462E+01       0.0006          4          3    
0.0324999     7.356E+00  3.565E+01       0.0006          5          3    
0.0349999     7.634E+00  3.661E+01       0.0006          5          4    
0.0374999     7.902E+00  3.752E+01       0.0006          5          4    
0.0399999     8.161E+00  3.837E+01       0.0007          5          4    
0.0449999     8.656E+00  3.994E+01       0.0007          6          4    
0.0499999     9.124E+00  4.136E+01       0.0008          6          4    
0.0549999     9.570E+00  4.264E+01       0.0008          6          5    
0.0599999     9.995E+00  4.382E+01       0.0008          7          5    
0.0649999     1.040E+01  4.491E+01       0.0009          7          5    
0.0699999     1.080E+01  4.591E+01       0.0009          7          5    
0.0799999     1.154E+01  4.772E+01      0.0010          8          6    
0.0899999     1.224E+01  4.930E+01      0.0011          8          6    
0.0999999     1.290E+01  5.070E+01      0.0012          9          6    
0.110     1.353E+01  5.195E+01      0.0013          9          7    
0.120     1.414E+01  5.308E+01      0.0013         10          7    
0.130     1.471E+01  5.410E+01      0.0014         10          7    
0.139999     1.527E+01  5.503E+01      0.0015         11          8    
0.149999     1.580E+01  5.588E+01      0.0015         11          8    
0.159999     1.632E+01  5.666E+01      0.0016         12          8    
0.169999     1.682E+01  5.738E+01      0.0017         12          9    
0.179999     1.731E+01  5.804E+01      0.0018         13          9    
0.199999     1.825E+01  5.923E+01      0.0019         13         10    
0.224999     1.935E+01  6.050E+01      0.0021         14         11    
0.249999     2.040E+01  6.157E+01      0.0022         15         11    
0.274999     2.140E+01  6.248E+01      0.0024         16         12    
0.299999     2.235E+01  6.327E+01      0.0026         17         13    
0.324999     2.326E+01  6.394E+01      0.0027         18         13    
0.349999     2.414E+01  6.453E+01      0.0029         19         14    
0.374999     2.499E+01  6.504E+01      0.0030         20         15    
0.399999     2.581E+01  6.548E+01      0.0032         21         15    
0.449999     2.737E+01  6.619E+01      0.0035         23         17    
0.49999     2.885E+01  6.672E+01      0.0038         24         18    
0.549999     3.026E+01  6.712E+01      0.0041         26         19    
0.599999     3.160E+01  6.740E+01      0.0044         28         20    
0.649999     3.289E+01  6.760E+01      0.0047         29         21    
0.699999     3.414E+01  6.772E+01      0.0050         31         23    
0.799999     3.649E+01  6.778E+01      0.0056         34         25    
0.899999     3.871E+01  6.768E+01      0.0061         37         27    
0.999999     4.080E+01  6.745E+01      0.0067         40         29    
1.10    4.279E+01  6.714E+01      0.0073         42         31    
1.20    4.469E+01  6.676E+01      0.0079         45         33    
1.30    4.652E+01  6.633E+01      0.0084         48         35    
1.40    4.827E+01  6.587E+01      0.0090         51         37    
1.50    4.997E+01  6.539E+01      0.0096         53         39    
1.60    5.161E+01  6.489E+01     0.0101         56         41    
1.70    5.319E+01  6.437E+01     0.0107         58         43    
1.80    5.474E+01  6.385E+01     0.0113         61         45    
2.00    5.770E+01  6.280E+01     0.0124         66         49    
2.25    6.119E+01  6.148E+01     0.0138         71         53    
2.50    6.450E+01  6.019E+01     0.0152         77         58    
2.75    6.765E+01  5.894E+01     0.0166         83         62    
3.00    7.066E+01  5.773E+01     0.0179         88         66    
3.25    7.354E+01  5.656E+01     0.0193         93         70    
3.50    7.632E+01  5.544E+01     0.0207         98         74    
3.75    7.899E+01  5.436E+01     0.0221        103         78    
4.00    8.158E+01  5.333E+01     0.0234        108         82    
4.50    8.653E+01  5.139E+01     0.0261        117         90    
5.00    9.121E+01  4.960E+01     0.0288        126         98    
5.50    9.566E+01  4.795E+01     0.0315        134        105    
6.00    9.991E+01  4.642E+01     0.0342        142        112    
6.50    1.040E+02  4.501E+01     0.0368        150        119    
7.00    1.079E+02  4.369E+01     0.0394        157        125    
8.00    1.154E+02  4.130E+01     0.0445        171        138    
9.00    1.223E+02  3.921E+01     0.0496        184        150    
10.00    1.290E+02  3.735E+01     0.0546        195        162    
11.00    1.353E+02  3.569E+01     0.0595        206        173    
12.00    1.413E+02  3.420E+01     0.0643        217        184    
13.00    1.470E+02  3.285E+01     0.0690        226        194    
14.00    1.526E+02  3.161E+01     0.0737        235        204    
15.00    1.582E+02  3.049E+01     0.0783        244        213    
16.00    1.637E+02  2.945E+01     0.0828        252        222    
17.00    1.690E+02  2.849E+01     0.0872        260        231    
18.00    1.742E+02  2.761E+01     0.0915        267        239    
20.00    1.843E+02  2.601E+01    0.1001        280        255    
22.50    1.962E+02  2.430E+01    0.1103        295        273    
25.00    2.075E+02  2.283E+01    0.1203        309        290    
27.50    2.184E+02  2.155E+01    0.1299        321        306    
30.00    2.288E+02  2.043E+01    0.1392        332        320    
32.50    2.388E+02  1.943E+01    0.1482        342        333    
35.00    2.486E+02  1.854E+01    0.1569        351        346    
37.50    2.580E+02  1.774E+01    0.1654        359        358    
40.00    2.671E+02  1.702E+01    0.1737        367        369    
45.00    2.846E+02  1.575E+01    0.1897        381        389    
50.00    3.013E+02  1.468E+01    0.2050        393        408    
55.00    3.172E+02  1.377E+01    0.2196        403        424    
60.00    3.325E+02  1.297E+01    0.2336        413        439    
65.00    3.472E+02  1.227E+01    0.2471        421        453    
70.00    3.613E+02  1.166E+01    0.2602        429        466    
80.00    3.881E+02  1.061E+01    0.2851        443        489    
90.00    4.132E+02  9.753E+00    0.3086        455        509    
100.00    4.368E+02  9.038E+00    0.3309        465        526    
110.00    4.591E+02  8.431E+00    0.3522        473        542    
120.00    4.803E+02  7.909E+00    0.3726        481        556    
130.00    5.006E+02  7.454E+00    0.3923        488        569    
140.00    5.201E+02  7.053E+00    0.4112        494        581    
150.00    5.389E+02  6.698E+00    0.4294        500        591    
160.00    5.571E+02  6.380E+00    0.4472        505        601    
170.00    5.747E+02  6.094E+00    0.4643        509        611    
180.00    5.920E+02  5.834E+00    0.4810        514        619    
200.00    6.252E+02  5.383E+00    0.5131        522        635    
225.00    6.648E+02  4.916E+00    0.5511        532        652    
250.00    7.023E+02  4.530E+00    0.5870        540        667    
275.00    7.380E+02  4.205E+00    0.6212        547        680    
300.00    7.719E+02  3.927E+00    0.6538        553        692    
325.00    8.042E+02  3.687E+00    0.6851        559        702    
350.00    8.349E+02  3.477E+00    0.7152        564        712    
375.00    8.642E+02  3.291E+00    0.7444        568        721    
400.00    8.921E+02  3.126E+00    0.7725        572        729    
450.00    9.441E+02  2.845E+00    0.8265        582        743    
500.00    9.912E+02  2.613E+00    0.8778        591        755    
550.00    1.034E+03  2.419E+00    0.9268        598        766    
600.00    1.072E+03  2.254E+00    0.9740        605        776    
650.00    1.107E+03  2.111E+00    1.02       611        785    
700.00    1.139E+03  1.987E+00    1.06       617        793    
800.00    1.191E+03  1.781E+00    1.15       632        808    
900.00    1.233E+03  1.616E+00    1.23       646        820    
1000.00    1.264E+03  1.481E+00    1.31       659        832    
1000.10    1.286E+03  1.368E+00    1.39       671        842    
1000.20    1.299E+03  1.272E+00    1.47       682        851    
1000.30    1.306E+03  1.190E+00    1.54       693        860    
1000.40    1.307E+03  1.118E+00    1.62       704        868    
1000.50    1.303E+03  1.055E+00    1.70       714        876    
1000.60    1.293E+03  9.991E-01    1.77       724        884    
1000.70    1.280E+03  9.492E-01    1.85       734        891    
1000.80    1.263E+03  9.045E-01    1.93       745        899    
2000.00    1.221E+03  8.272E-01    2.09       782        913    
2000.25    1.157E+03  7.484E-01    2.30       841        931    
2000.50    1.086E+03  6.841E-01    2.52       902        949    
2000.75    1.014E+03  6.306E-01    2.76       967        967    
3000.00    9.431E+02  5.853E-01    3.02      1037        987    
3000.25    8.764E+02  5.464E-01    3.29      1112       1008    
3000.50    8.153E+02  5.127E-01    3.59      1193       1031    
3000.75    7.601E+02  4.831E-01    3.90      1280       1055    
4000.00    7.111E+02  4.569E-01    4.24      1373       1081    
4000.50    6.299E+02  4.127E-01    4.99      1743       1141    
5000.00    5.674E+02  3.767E-01    5.83      2118       1211    
5000.50    5.189E+02  3.468E-01    6.75      2498       1292    
6000.00    4.805E+02  3.215E-01    7.75      2884       1384    
6000.50    4.495E+02  2.998E-01    8.82      3274       1486    
7000.00    4.237E+02  2.811E-01    9.97      3667       1599    
8000.00    3.831E+02  2.501E-01   12.45      5102       1854    
9000.00    3.520E+02  2.256E-01   15.17      6418       2146    
10000.00    3.270E+02  2.056E-01   18.12      7680       2469    