#Energy(keV)    dEe/dx(keV/micro_m)  dEn/dx(keV/micro_m)  x(micro_m) LastWrongU
0.0099999     1.748E+00  2.202E+01       0.0003          3          2    
0.0109999     1.833E+00  2.298E+01       0.0003          3          2    
0.0119999     1.915E+00  2.388E+01       0.0003          3          2    
0.0129999     1.993E+00  2.473E+01       0.0004          3          2    
0.0139999     2.068E+00  2.553E+01       0.0004          3          3    
0.0149999     2.141E+00  2.629E+01       0.0004          3          3    
0.0159999     2.211E+00  2.702E+01       0.0004          3          3    
0.0169999     2.279E+00  2.771E+01       0.0004          4          3    
0.0179999     2.345E+00  2.837E+01       0.0004          4          3    
0.0199999     2.472E+00  2.961E+01       0.0005          4          3    
0.0224999     2.622E+00  3.102E+01       0.0005          4          3    
0.0249999     2.763E+00  3.232E+01       0.0005          4          3    
0.0274999     2.898E+00  3.352E+01       0.0006          5          4    
0.0299999     3.027E+00  3.462E+01       0.0006          5          4    
0.0324999     3.151E+00  3.565E+01       0.0006          5          4    
0.0349999     3.270E+00  3.662E+01       0.0006          5          4    
0.0374999     3.385E+00  3.752E+01       0.0007          5          4    
0.0399999     3.495E+00  3.837E+01       0.0007          6          4    
0.0449999     3.708E+00  3.994E+01       0.0007          6          5    
0.0499999     3.908E+00  4.136E+01       0.0008          6          5    
0.0549999     4.099E+00  4.265E+01       0.0008          7          5    
0.0599999     4.281E+00  4.383E+01       0.0009          7          5    
0.0649999     4.456E+00  4.491E+01       0.0009          7          6    
0.0699999     4.624E+00  4.592E+01      0.0010          8          6    
0.0799999     4.943E+00  4.773E+01      0.0011          8          6    
0.0899999     5.243E+00  4.931E+01      0.0012          9          7    
0.0999999     5.527E+00  5.071E+01      0.0012         10          7    
0.110     5.797E+00  5.196E+01      0.0013         10          8    
0.120     6.054E+00  5.308E+01      0.0014         11          8    
0.130     6.302E+00  5.410E+01      0.0015         11          8    
0.139999     6.539E+00  5.503E+01      0.0016         12          9    
0.149999     6.769E+00  5.588E+01      0.0016         12          9    
0.159999     6.991E+00  5.667E+01      0.0017         13         10    
0.169999     7.206E+00  5.738E+01      0.0018         13         10    
0.179999     7.415E+00  5.805E+01      0.0019         14         10    
0.199999     7.816E+00  5.924E+01      0.0020         15         11    
0.224999     8.290E+00  6.051E+01      0.0022         16         12    
0.249999     8.739E+00  6.158E+01      0.0024         17         13    
0.274999     9.165E+00  6.249E+01      0.0026         19         13    
0.299999     9.573E+00  6.327E+01      0.0027         20         14    
0.324999     9.964E+00  6.395E+01      0.0029         21         15    
0.349999     1.034E+01  6.453E+01      0.0031         22         16    
0.374999     1.070E+01  6.504E+01      0.0033         23         17    
0.399999     1.105E+01  6.548E+01      0.0035         24         17    
0.449999     1.172E+01  6.619E+01      0.0038         26         19    
0.499999     1.236E+01  6.673E+01      0.0041         28         20    
0.549999     1.296E+01  6.712E+01      0.0045         30         22    
0.599999     1.354E+01  6.741E+01      0.0048         32         23    
0.649999     1.409E+01  6.760E+01      0.0052         34         25    
0.699999     1.462E+01  6.772E+01      0.0055         36         26    
0.799999     1.563E+01  6.779E+01      0.0062         40         29    
0.899999     1.658E+01  6.768E+01      0.0069         44         32    
0.999999     1.748E+01  6.746E+01      0.0076         48         35    
1.10    1.833E+01  6.714E+01      0.0082         52         37    
1.20    1.915E+01  6.676E+01      0.0089         56         40    
1.30    1.993E+01  6.634E+01      0.0096         60         43    
1.40    2.068E+01  6.588E+01     0.0103         63         45    
1.50    2.141E+01  6.539E+01     0.0110         67         48    
1.60    2.211E+01  6.489E+01     0.0117         71         50    
1.70    2.279E+01  6.437E+01     0.0124         74         53    
1.80    2.345E+01  6.385E+01     0.0131         78         56    
2.00    2.472E+01  6.280E+01     0.0146         85         61    
2.25    2.622E+01  6.149E+01     0.0164         94         67    
2.50    2.763E+01  6.020E+01     0.0182        103         74    
2.75    2.898E+01  5.894E+01     0.0200        112         80    
3.00    3.027E+01  5.773E+01     0.0219        120         87    
3.25    3.151E+01  5.656E+01     0.0237        129         93    
3.50    3.270E+01  5.544E+01     0.0256        137         99    
3.75    3.385E+01  5.437E+01     0.0275        146        106    
4.00    3.496E+01  5.333E+01     0.0294        154        112    
4.50    3.708E+01  5.139E+01     0.0333        170        125    
5.00    3.908E+01  4.960E+01     0.0372        186        138    
5.50    4.099E+01  4.795E+01     0.0411        202        150    
6.00    4.281E+01  4.643E+01     0.0451        217        163    
6.50    4.456E+01  4.501E+01     0.0491        232        175    
7.00    4.624E+01  4.369E+01     0.0531        247        187    
8.00    4.944E+01  4.131E+01     0.0612        276        212    
9.00    5.243E+01  3.921E+01     0.0693        303        236    
10.00    5.527E+01  3.735E+01     0.0774        329        260    
11.00    5.797E+01  3.569E+01     0.0856        355        283    
12.00    6.055E+01  3.420E+01     0.0937        379        305    
13.00    6.302E+01  3.285E+01    0.1018        402        328    
14.00    6.540E+01  3.161E+01    0.1099        425        350    
15.00    6.782E+01  3.049E+01    0.1180        446        371    
16.00    7.017E+01  2.945E+01    0.1260        467        392    
17.00    7.246E+01  2.849E+01    0.1340        487        412    
18.00    7.470E+01  2.761E+01    0.1419        506        432    
20.00    7.900E+01  2.601E+01    0.1576        543        471    
22.50    8.412E+01  2.430E+01    0.1769        585        517    
25.00    8.899E+01  2.283E+01    0.1959        624        560    
27.50    9.365E+01  2.155E+01    0.2145        660        601    
30.00    9.813E+01  2.043E+01    0.2327        693        640    
32.50    1.024E+02  1.943E+01    0.2506        724        677    
35.00    1.066E+02  1.854E+01    0.2682        753        712    
37.50    1.107E+02  1.774E+01    0.2854        779        746    
40.00    1.146E+02  1.702E+01    0.3023        804        778    
45.00    1.221E+02  1.575E+01    0.3352        851        837    
50.00    1.293E+02  1.468E+01    0.3670        891        892    
55.00    1.361E+02  1.377E+01    0.3977        928        943    
60.00    1.427E+02  1.297E+01    0.4275        961        989    
65.00    1.490E+02  1.227E+01    0.4564        991       1033    
70.00    1.551E+02  1.166E+01    0.4845       1019       1073    
80.00    1.667E+02  1.061E+01    0.5385       1068       1147    
90.00    1.775E+02  9.753E+00    0.5898       1110       1212    
100.00    1.877E+02  9.038E+00    0.6389       1147       1271    
110.00    1.973E+02  8.431E+00    0.6860       1179       1324    
120.00    2.065E+02  7.909E+00    0.7313       1207       1372    
130.00    2.153E+02  7.454E+00    0.7750       1233       1416    
140.00    2.237E+02  7.053E+00    0.8173       1256       1457    
150.00    2.319E+02  6.698E+00    0.8583       1277       1494    
160.00    2.398E+02  6.380E+00    0.8981       1296       1529    
170.00    2.475E+02  6.093E+00    0.9367       1313       1562    
180.00    2.549E+02  5.834E+00    0.9744       1329       1592    
200.00    2.694E+02  5.383E+00    1.05      1360       1648    
225.00    2.867E+02  4.916E+00    1.13      1394       1709    
250.00    3.031E+02  4.530E+00    1.21      1422       1763    
275.00    3.188E+02  4.205E+00    1.29      1447       1811    
300.00    3.337E+02  3.927E+00    1.37      1469       1854    
325.00    3.480E+02  3.687E+00    1.44      1488       1892    
350.00    3.616E+02  3.477E+00    1.51      1506       1928    
375.00    3.747E+02  3.291E+00    1.57      1521       1960    
400.00    3.872E+02  3.126E+00    1.64      1536       1990    
450.00    4.106E+02  2.844E+00    1.76      1565       2043    
500.00    4.320E+02  2.613E+00    1.88      1591       2089    
550.00    4.517E+02  2.419E+00    1.99      1613       2130    
600.00    4.698E+02  2.254E+00    2.10      1633       2167    
650.00    4.864E+02  2.111E+00    2.20      1651       2200    
700.00    5.016E+02  1.987E+00    2.30      1667       2230    
800.00    5.283E+02  1.781E+00    2.49      1706       2284    
900.00    5.505E+02  1.616E+00    2.67      1740       2330    
1000.00    5.690E+02  1.481E+00    2.85      1771       2372    
1000.10    5.841E+02  1.368E+00    3.02      1798       2409    
1000.20    5.964E+02  1.272E+00    3.19      1824       2443    
1000.30    6.061E+02  1.190E+00    3.36      1848       2474    
1000.40    6.137E+02  1.118E+00    3.52      1871       2503    
1000.50    6.194E+02  1.055E+00    3.68      1892       2531    
1000.60    6.236E+02  9.990E-01    3.84      1913       2557    
1000.70    6.263E+02  9.492E-01    4.00      1934       2582    
1000.80    6.278E+02  9.044E-01    4.16      1953       2606    
2000.00    6.279E+02  8.272E-01    4.48      2016       2651    
2000.25    6.237E+02  7.484E-01    4.88      2107       2704    
2000.50    6.161E+02  6.841E-01    5.28      2196       2754    
2000.75    6.062E+02  6.306E-01    5.69      2283       2803    
3000.00    5.948E+02  5.853E-01    6.10      2369       2850    
3000.25    5.824E+02  5.464E-01    6.53      2455       2897    
3000.50    5.695E+02  5.127E-01    6.96      2541       2943    
3000.75    5.562E+02  4.831E-01    7.40      2629       2989    
4000.00    5.428E+02  4.569E-01    7.86      2717       3035    
4000.50    5.165E+02  4.127E-01    8.80      3047       3129    
5000.00    4.913E+02  3.767E-01    9.79      3374       3226    
5000.50    4.677E+02  3.468E-01   10.83      3701       3326    
6000.00    4.459E+02  3.215E-01   11.93      4031       3430    
6000.50    4.258E+02  2.998E-01   13.07      4365       3539    
7000.00    4.074E+02  2.811E-01   14.27      4703       3653    
8000.00    3.751E+02  2.501E-01   16.83      5968       3898    
9000.00    3.480E+02  2.256E-01   19.60      7172       4166    
10000.00    3.249E+02  2.056E-01   22.57      8350       4457    