#Energy(keV)    dEe/dx(keV/micro_m)  dEn/dx(keV/micro_m)  x(micro_m) LastWrongU
0.0099999     2.824E+00  3.885E+01       0.0003          2          1    
0.0109999     2.962E+00  4.088E+01       0.0003          2          1    
0.0119999     3.094E+00  4.281E+01       0.0003          2          1    
0.0129999     3.220E+00  4.466E+01       0.0003          2          2    
0.0139999     3.342E+00  4.642E+01       0.0003          2          2    
0.0149999     3.459E+00  4.812E+01       0.0004          2          2    
0.0159999     3.573E+00  4.975E+01       0.0004          2          2    
0.0169999     3.683E+00  5.132E+01       0.0004          2          2    
0.0179999     3.789E+00  5.283E+01       0.0004          2          2    
0.0199999     3.994E+00  5.572E+01       0.0004          3          2    
0.0224999     4.237E+00  5.909E+01       0.0004          3          2    
0.0249999     4.466E+00  6.224E+01       0.0004          3          2    
0.0274999     4.684E+00  6.519E+01       0.0005          3          2    
0.0299999     4.892E+00  6.798E+01       0.0005          3          2    
0.0324999     5.092E+00  7.062E+01       0.0005          3          2    
0.0349999     5.284E+00  7.313E+01       0.0005          3          2    
0.0374999     5.469E+00  7.552E+01       0.0005          3          2    
0.0399999     5.649E+00  7.781E+01       0.0006          4          3    
0.0449999     5.991E+00  8.210E+01       0.0006          4          3    
0.0499999     6.316E+00  8.608E+01       0.0006          4          3    
0.0549999     6.624E+00  8.979E+01       0.0006          4          3    
0.0599999     6.918E+00  9.326E+01       0.0007          4          3    
0.0649999     7.201E+00  9.652E+01       0.0007          4          3    
0.0699999     7.473E+00  9.960E+01       0.0007          5          3    
0.0799999     7.989E+00  1.053E+02       0.0008          5          3    
0.0899999     8.473E+00  1.105E+02       0.0008          5          4    
0.0999999     8.932E+00  1.152E+02       0.0009          5          4    
0.110     9.368E+00  1.196E+02       0.0009          6          4    
0.120     9.784E+00  1.237E+02      0.0010          6          4    
0.130     1.018E+01  1.274E+02      0.0010          6          4    
0.139999     1.057E+01  1.310E+02      0.0011          6          5    
0.149999     1.094E+01  1.343E+02      0.0011          7          5    
0.159999     1.130E+01  1.375E+02      0.0012          7          5    
0.169999     1.165E+01  1.405E+02      0.0012          7          5    
0.179999     1.198E+01  1.433E+02      0.0012          7          5    
0.199999     1.263E+01  1.485E+02      0.0013          8          6    
0.224999     1.340E+01  1.545E+02      0.0014          8          6    
0.249999     1.412E+01  1.598E+02      0.0015          9          6    
0.274999     1.481E+01  1.646E+02      0.0016          9          7    
0.299999     1.547E+01  1.691E+02      0.0017          9          7    
0.324999     1.610E+01  1.731E+02      0.0018         10          7    
0.349999     1.671E+01  1.769E+02      0.0018         10          7    
0.374999     1.730E+01  1.803E+02      0.0019         11          8    
0.399999     1.786E+01  1.836E+02      0.0020         11          8    
0.449999     1.895E+01  1.895E+02      0.0022         12          9    
0.499999     1.997E+01  1.946E+02      0.0023         13          9    
0.549999     2.095E+01  1.992E+02      0.0025         13         10    
0.599999     2.188E+01  2.034E+02      0.0026         14         10    
0.649999     2.277E+01  2.071E+02      0.0028         15         11    
0.699999     2.363E+01  2.105E+02      0.0029         15         11    
0.799999     2.526E+01  2.164E+02      0.0032         17         12    
0.899999     2.679E+01  2.214E+02      0.0035         18         13    
0.999999     2.824E+01  2.257E+02      0.0037         19         14    
1.10    2.962E+01  2.293E+02      0.0040         20         15    
1.20    3.094E+01  2.325E+02      0.0043         21         16    
1.30    3.220E+01  2.353E+02      0.0045         22         16    
1.40    3.342E+01  2.377E+02      0.0048         24         17    
1.50    3.459E+01  2.398E+02      0.0050         25         18    
1.60    3.573E+01  2.417E+02      0.0053         26         19    
1.70    3.683E+01  2.433E+02      0.0055         27         20    
1.80    3.789E+01  2.448E+02      0.0058         28         20    
2.00    3.994E+01  2.472E+02      0.0063         30         22    
2.25    4.237E+01  2.494E+02      0.0069         33         24    
2.50    4.466E+01  2.510E+02      0.0075         35         25    
2.75    4.684E+01  2.521E+02      0.0081         38         27    
3.00    4.892E+01  2.528E+02      0.0087         40         29    
3.25    5.092E+01  2.532E+02      0.0093         42         31    
3.50    5.284E+01  2.533E+02      0.0099         45         32    
3.75    5.470E+01  2.532E+02     0.0105         47         34    
4.00    5.649E+01  2.529E+02     0.0111         49         36    
4.50    5.992E+01  2.520E+02     0.0123         54         39    
5.00    6.316E+01  2.506E+02     0.0135         59         42    
5.50    6.624E+01  2.489E+02     0.0147         63         45    
6.00    6.919E+01  2.471E+02     0.0159         68         48    
6.50    7.201E+01  2.451E+02     0.0171         72         52    
7.00    7.473E+01  2.430E+02     0.0184         77         55    
8.00    7.989E+01  2.386E+02     0.0208         85         61    
9.00    8.473E+01  2.341E+02     0.0232         94         67    
10.00    8.932E+01  2.297E+02     0.0257        102         73    
11.00    9.368E+01  2.253E+02     0.0282        111         79    
12.00    9.784E+01  2.210E+02     0.0306        119         85    
13.00    1.018E+02  2.169E+02     0.0331        127         90    
14.00    1.057E+02  2.129E+02     0.0357        135         96    
15.00    1.094E+02  2.090E+02     0.0382        143        102    
16.00    1.130E+02  2.052E+02     0.0407        151        108    
17.00    1.165E+02  2.016E+02     0.0433        159        114    
18.00    1.198E+02  1.982E+02     0.0458        166        120    
20.00    1.263E+02  1.916E+02     0.0510        181        131    
22.50    1.340E+02  1.841E+02     0.0575        200        146    
25.00    1.412E+02  1.772E+02     0.0640        218        160    
27.50    1.481E+02  1.709E+02     0.0706        235        174    
30.00    1.547E+02  1.650E+02     0.0772        252        188    
32.50    1.603E+02  1.597E+02     0.0838        268        202    
35.00    1.635E+02  1.547E+02     0.0905        285        216    
37.50    1.671E+02  1.501E+02     0.0972        301        230    
40.00    1.711E+02  1.458E+02    0.1039        316        243    
45.00    1.796E+02  1.380E+02    0.1176        347        271    
50.00    1.885E+02  1.311E+02    0.1312        376        297    
55.00    1.973E+02  1.250E+02    0.1448        404        324    
60.00    2.058E+02  1.196E+02    0.1584        431        350    
65.00    2.140E+02  1.146E+02    0.1719        456        375    
70.00    2.218E+02  1.102E+02    0.1853        481        400    
80.00    2.362E+02  1.023E+02    0.2119        527        449    
90.00    2.493E+02  9.569E+01    0.2382        570        495    
100.00    2.615E+02  8.999E+01    0.2642        609        539    
110.00    2.735E+02  8.502E+01    0.2898        646        582    
120.00    2.852E+02  8.065E+01    0.3151        681        623    
130.00    2.968E+02  7.677E+01    0.3399        713        662    
140.00    3.082E+02  7.329E+01    0.3644        743        699    
150.00    3.194E+02  7.016E+01    0.3884        772        735    
160.00    3.302E+02  6.732E+01    0.4120        798        769    
170.00    3.408E+02  6.474E+01    0.4352        823        802    
180.00    3.512E+02  6.237E+01    0.4580        847        834    
200.00    3.712E+02  5.818E+01    0.5026        891        894    
225.00    3.954E+02  5.376E+01    0.5562        940        962    
250.00    4.190E+02  5.005E+01    0.6079        984       1025    
275.00    4.422E+02  4.687E+01    0.6576       1023       1083    
300.00    4.651E+02  4.411E+01    0.7054       1057       1136    
325.00    4.878E+02  4.170E+01    0.7516       1089       1185    
350.00    5.104E+02  3.956E+01    0.7961       1117       1230    
375.00    5.329E+02  3.766E+01    0.8391       1142       1272    
400.00    5.553E+02  3.595E+01    0.8806       1165       1311    
450.00    5.997E+02  3.301E+01    0.9598       1208       1381    
500.00    6.435E+02  3.056E+01    1.03      1244       1443    
550.00    6.867E+02  2.848E+01    1.10      1275       1498    
600.00    7.292E+02  2.669E+01    1.17      1301       1546    
650.00    7.710E+02  2.514E+01    1.23      1325       1590    
700.00    8.119E+02  2.377E+01    1.29      1345       1629    
800.00    8.912E+02  2.147E+01    1.41      1384       1698    
900.00    9.669E+02  1.962E+01    1.51      1415       1755    
1000.00    1.039E+03  1.809E+01    1.61      1441       1804    
1000.10    1.107E+03  1.679E+01    1.70      1463       1846    
1000.20    1.172E+03  1.569E+01    1.78      1482       1883    
1000.30    1.233E+03  1.473E+01    1.86      1498       1916    
1000.40    1.291E+03  1.390E+01    1.94      1512       1945    
1000.50    1.345E+03  1.316E+01    2.02      1525       1972    
1000.60    1.396E+03  1.250E+01    2.09      1537       1996    
1000.70    1.443E+03  1.191E+01    2.16      1548       2018    
1000.80    1.488E+03  1.138E+01    2.22      1557       2038    
2000.00    1.569E+03  1.045E+01    2.35      1580       2075    
2000.25    1.656E+03  9.505E+00    2.51      1607       2114    
2000.50    1.728E+03  8.726E+00    2.65      1631       2148    
2000.75    1.789E+03  8.074E+00    2.79      1652       2178    
3000.00    1.838E+03  7.519E+00    2.93      1671       2205    
3000.25    1.879E+03  7.041E+00    3.06      1689       2229    
3000.50    1.911E+03  6.625E+00    3.20      1706       2252    
3000.75    1.937E+03  6.258E+00    3.32      1721       2273    
4000.00    1.958E+03  5.932E+00    3.45      1736       2292    
4000.50    1.985E+03  5.380E+00    3.70      1783       2328    
5000.00    1.999E+03  4.927E+00    3.95      1827       2361    
5000.50    2.003E+03  4.550E+00    4.20      1869       2392    
6000.00    2.001E+03  4.230E+00    4.45      1909       2420    
6000.50    1.994E+03  3.954E+00    4.70      1949       2447    
7000.00    1.984E+03  3.715E+00    4.95      1988       2473    
8000.00    1.957E+03  3.318E+00    5.46      2125       2523    
9000.00    1.926E+03  3.003E+00    5.97      2257       2570    
10000.00    1.893E+03  2.745E+00    6.49      2386       2615    