#Energy(keV)    dEe/dx(keV/micro_m)  dEn/dx(keV/micro_m)  x(micro_m) LstWrongU 
0.00999999     1.297E+00  2.864E+01       0.0004          3          2    
0.0109999     1.360E+00  3.055E+01       0.0004          3          2    
0.0119999     1.421E+00  3.241E+01       0.0004          3          3    
0.0129999     1.479E+00  3.421E+01       0.0004          3          3    
0.0139999     1.535E+00  3.596E+01       0.0004          3          3    
0.0149999     1.589E+00  3.766E+01       0.0004          4          3    
0.0159999     1.641E+00  3.933E+01       0.0004          4          3    
0.0169999     1.691E+00  4.096E+01       0.0004          4          3    
0.0179999     1.740E+00  4.255E+01       0.0005          4          3    
0.0199999     1.834E+00  4.564E+01       0.0005          4          3    
0.0224999     1.946E+00  4.935E+01       0.0005          4          3    
0.0249999     2.051E+00  5.290E+01       0.0005          4          3    
0.0274999     2.151E+00  5.633E+01       0.0005          4          3    
0.0299999     2.247E+00  5.963E+01       0.0005          5          4    
0.0324999     2.338E+00  6.283E+01       0.0005          5          4    
0.0349999     2.427E+00  6.594E+01       0.0006          5          4    
0.0374999     2.512E+00  6.896E+01       0.0006          5          4    
0.0399999     2.594E+00  7.191E+01       0.0006          5          4    
0.0449999     2.752E+00  7.759E+01       0.0006          5          4    
0.0499999     2.901E+00  8.302E+01       0.0006          6          4    
0.0549999     3.042E+00  8.823E+01       0.0007          6          4    
0.0599999     3.177E+00  9.326E+01       0.0007          6          5    
0.0649999     3.307E+00  9.812E+01       0.0007          6          5    
0.0699999     3.432E+00  1.028E+02       0.0007          6          5    
0.0799999     3.669E+00  1.118E+02       0.0007          7          5    
0.0899999     3.891E+00  1.204E+02       0.0008          7          5    
0.0999999     4.102E+00  1.286E+02       0.0008          7          5    
0.110     4.302E+00  1.364E+02       0.0008          7          6    
0.120     4.494E+00  1.439E+02       0.0009          8          6    
0.130     4.677E+00  1.511E+02       0.0009          8          6    
0.139999     4.854E+00  1.581E+02       0.0009          8          6    
0.149999     5.024E+00  1.649E+02       0.0009          8          6    
0.159999     5.189E+00  1.715E+02      0.0010          8          6    
0.169999     5.349E+00  1.779E+02      0.0010          9          6    
0.179999     5.504E+00  1.841E+02      0.0010          9          7    
0.199999     5.801E+00  1.961E+02      0.0010          9          7    
0.224999     6.153E+00  2.103E+02      0.0011          9          7    
0.249999     6.486E+00  2.239E+02      0.0011         10          7    
0.274999     6.803E+00  2.368E+02      0.0012         10          8    
0.299999     7.105E+00  2.491E+02      0.0012         10          8    
0.324999     7.395E+00  2.610E+02      0.0013         11          8    
0.349999     7.675E+00  2.724E+02      0.0013         11          8    
0.374999     7.944E+00  2.834E+02      0.0013         11          9    
0.399999     8.204E+00  2.941E+02      0.0014         12          9    
0.449999     8.702E+00  3.145E+02      0.0014         12          9    
0.499999     9.173E+00  3.338E+02      0.0015         13          9    
0.549999     9.621E+00  3.521E+02      0.0016         13         10    
0.599999     1.005E+01  3.695E+02      0.0016         14         10    
0.649999     1.046E+01  3.862E+02      0.0017         14         10    
0.699999     1.085E+01  4.023E+02      0.0017         14         11    
0.799999     1.160E+01  4.326E+02      0.0018         15         11    
0.899999     1.231E+01  4.609E+02      0.0019         16         12    
0.999999     1.297E+01  4.876E+02      0.0020         17         12    
1.10    1.361E+01  5.127E+02      0.0021         17         13    
1.20    1.421E+01  5.366E+02      0.0022         18         13    
1.30    1.479E+01  5.594E+02      0.0023         18         14    
1.40    1.535E+01  5.811E+02      0.0023         19         14    
1.50    1.589E+01  6.020E+02      0.0024         20         14    
1.60    1.641E+01  6.220E+02      0.0025         20         15    
1.70    1.691E+01  6.414E+02      0.0026         21         15    
1.80    1.740E+01  6.600E+02      0.0026         21         15    
2.00    1.835E+01  6.954E+02      0.0028         22         16    
2.25    1.946E+01  7.367E+02      0.0029         23         17    
2.50    2.051E+01  7.752E+02      0.0031         24         18    
2.75    2.151E+01  8.112E+02      0.0032         25         18    
3.00    2.247E+01  8.452E+02      0.0034         26         19    
3.25    2.339E+01  8.773E+02      0.0035         27         20    
3.50    2.427E+01  9.078E+02      0.0036         28         20    
3.75    2.512E+01  9.368E+02      0.0037         29         21    
4.00    2.594E+01  9.645E+02      0.0039         30         22    
4.50    2.752E+01  1.016E+03      0.0041         32         23    
5.00    2.901E+01  1.064E+03      0.0043         33         24    
5.50    3.042E+01  1.109E+03      0.0046         35         25    
6.00    3.178E+01  1.151E+03      0.0048         36         26    
6.50    3.307E+01  1.190E+03      0.0050         38         27    
7.00    3.432E+01  1.227E+03      0.0052         39         27    
8.00    3.669E+01  1.295E+03      0.0056         41         29    
9.00    3.892E+01  1.357E+03      0.0060         44         31   
10.00    4.102E+01  1.413E+03      0.0063         46         33    
11.00    4.302E+01  1.465E+03      0.0067         48         34    
12.00    4.494E+01  1.513E+03      0.0070         50         36    
13.00    4.677E+01  1.557E+03      0.0074         52         37    
14.00    4.854E+01  1.599E+03      0.0077         54         39    
15.00    5.024E+01  1.638E+03      0.0080         56         40    
16.00    5.189E+01  1.675E+03      0.0083         58         42    
17.00    5.349E+01  1.710E+03      0.0086         60         43    
18.00    5.504E+01  1.743E+03      0.0089         62         44    
20.00    5.801E+01  1.804E+03      0.0095         65         47    
22.50    6.153E+01  1.873E+03     0.0103         70         50    
25.00    6.486E+01  1.934E+03     0.0110         74         53    
27.50    6.803E+01  1.990E+03     0.0116         78         56    
30.00    7.105E+01  2.040E+03     0.0123         82         59    
32.50    7.395E+01  2.087E+03     0.0130         85         61    
35.00    7.675E+01  2.129E+03     0.0136         89         64    
37.50    7.944E+01  2.169E+03     0.0143         93         67    
40.00    8.204E+01  2.205E+03     0.0149         96         69    
45.00    8.702E+01  2.271E+03     0.0161        103         74    
50.00    9.173E+01  2.329E+03     0.0174        110         79    
55.00    9.621E+01  2.380E+03     0.0186        117         84    
60.00    1.005E+02  2.425E+03     0.0197        123         89    
65.00    1.046E+02  2.466E+03     0.0209        129         93    
70.00    1.085E+02  2.503E+03     0.0221        136         98    
80.00    1.160E+02  2.567E+03     0.0243        148        106    
90.00    1.231E+02  2.620E+03     0.0266        159        115    
100.00    1.297E+02  2.664E+03     0.0288        171        123    
110.00    1.361E+02  2.702E+03     0.0310        183        131    
120.00    1.421E+02  2.734E+03     0.0331        194        139    
130.00    1.479E+02  2.762E+03     0.0353        205        147    
140.00    1.535E+02  2.786E+03     0.0374        216        155    
150.00    1.589E+02  2.806E+03     0.0395        227        162    
160.00    1.641E+02  2.824E+03     0.0417        238        170    
170.00    1.691E+02  2.839E+03     0.0438        249        177    
180.00    1.740E+02  2.852E+03     0.0459        259        185    
200.00    1.835E+02  2.872E+03     0.0501        280        199    
225.00    1.946E+02  2.889E+03     0.0554        307        217    
250.00    2.051E+02  2.900E+03     0.0607        333        235    
275.00    2.362E+02  2.904E+03     0.0659        358        253    
300.00    2.696E+02  2.905E+03     0.0711        383        270    
325.00    2.932E+02  2.903E+03     0.0764        408        288    
350.00    3.106E+02  2.897E+03     0.0816        432        305    
375.00    3.238E+02  2.890E+03     0.0868        457        322    
400.00    3.344E+02  2.881E+03     0.0921        482        338    
450.00    3.514E+02  2.859E+03    0.1027        531        372    
500.00    3.663E+02  2.834E+03    0.1134        580        404    
550.00    3.813E+02  2.806E+03    0.1242        629        437    
600.00    3.973E+02  2.776E+03    0.1352        679        469    
650.00    4.146E+02  2.746E+03    0.1463        728        502    
700.00    4.333E+02  2.715E+03    0.1575        777        534    
800.00    4.738E+02  2.652E+03    0.1802        875        600    
900.00    5.175E+02  2.591E+03    0.2033        972        667    
1000.00    5.629E+02  2.531E+03    0.2267       1068        733    
1000.10    6.090E+02  2.474E+03    0.2503       1163        800    
1000.20    6.551E+02  2.419E+03    0.2742       1257        868    
1000.30    7.008E+02  2.366E+03    0.2983       1351        936    
1000.40    7.456E+02  2.315E+03    0.3226       1443       1003    
1000.50    7.895E+02  2.267E+03    0.3470       1534       1072    
1000.60    8.323E+02  2.220E+03    0.3716       1624       1140    
1000.70    8.741E+02  2.176E+03    0.3964       1713       1208    
1000.80    9.147E+02  2.134E+03    0.4213       1801       1276    
2000.00    9.929E+02  2.055E+03    0.4714       1974       1413    
2000.25    1.085E+03  1.965E+03    0.5346       2185       1583    
2000.50    1.172E+03  1.884E+03    0.5984       2389       1753    
2000.75    1.255E+03  1.810E+03    0.6625       2588       1921    
3000.00    1.334E+03  1.743E+03    0.7269       2782       2088    
3000.25    1.411E+03  1.681E+03    0.7915       2969       2253    
3000.50    1.485E+03  1.625E+03    0.8561       3152       2417    
3000.75    1.557E+03  1.572E+03    0.9208       3329       2578    
4000.00    1.628E+03  1.524E+03    0.9854       3500       2738    
4000.50    1.768E+03  1.437E+03    1.11      3829       3051    
5000.00    1.905E+03  1.360E+03    1.24      4137       3356    
5000.50    2.040E+03  1.293E+03    1.37      4428       3650    
6000.00    2.175E+03  1.233E+03    1.49      4700       3935    
6000.50    2.311E+03  1.180E+03    1.62      4955       4209    
7000.00    2.446E+03  1.131E+03    1.74      5195       4474    
8000.00    2.719E+03  1.047E+03    1.97      5633       4972    
9000.00    2.992E+03  9.758E+02    2.20      6019       5431    
10000.00    3.265E+03  9.151E+02    2.41      6360       5854    